# Facteurs de Correction Spectrale
# Date : 2026-01-13 11:07:07
# Plage : 380.0 - 779.0 nm
# Points : 400
# 
# Format : Wavelength(nm)  CorrectionFactor
380.000000 1.220561
381.000000 1.151883
382.000000 1.018155
383.000000 0.845947
384.000000 0.690024
385.000000 0.554277
386.000000 0.438531
387.000000 0.353871
388.000000 0.295781
389.000000 0.251964
390.000000 0.216268
391.000000 0.186525
392.000000 0.162958
393.000000 0.144641
394.000000 0.126623
395.000000 0.115512
396.000000 0.113744
397.000000 0.116990
398.000000 0.124054
399.000000 0.134847
400.000000 0.150167
401.000000 0.172018
402.000000 0.203057
403.000000 0.242784
404.000000 0.292141
405.000000 0.354487
406.000000 0.433674
407.000000 0.554000
408.000000 0.705124
409.000000 0.847483
410.000000 1.002293
411.000000 1.166173
412.000000 1.335000
413.000000 1.483608
414.000000 1.583874
415.000000 1.618189
416.000000 1.593707
417.000000 1.517113
418.000000 1.388266
419.000000 1.221666
420.000000 1.039006
421.000000 0.883042
422.000000 0.770796
423.000000 0.686131
424.000000 0.621191
425.000000 0.552192
426.000000 0.504586
427.000000 0.487435
428.000000 0.480339
429.000000 0.481396
430.000000 0.489991
431.000000 0.505690
432.000000 0.529946
433.000000 0.565549
434.000000 0.616321
435.000000 0.690001
436.000000 0.777694
437.000000 0.864346
438.000000 0.956815
439.000000 1.061486
440.000000 1.202856
441.000000 1.355654
442.000000 1.470368
443.000000 1.566043
444.000000 1.636750
445.000000 1.685473
446.000000 1.671927
447.000000 1.583121
448.000000 1.462403
449.000000 1.337525
450.000000 1.216319
451.000000 1.097539
452.000000 0.979629
453.000000 0.868458
454.000000 0.774985
455.000000 0.691680
456.000000 0.625918
457.000000 0.585872
458.000000 0.559785
459.000000 0.538788
460.000000 0.520057
461.000000 0.508225
462.000000 0.506301
463.000000 0.513862
464.000000 0.533307
465.000000 0.570540
466.000000 0.617903
467.000000 0.663386
468.000000 0.714001
469.000000 0.775260
470.000000 0.851736
471.000000 0.935708
472.000000 1.020644
473.000000 1.107864
474.000000 1.195079
475.000000 1.290012
476.000000 1.378878
477.000000 1.442534
478.000000 1.489547
479.000000 1.523777
480.000000 1.545666
481.000000 1.547273
482.000000 1.526389
483.000000 1.484090
484.000000 1.428374
485.000000 1.367012
486.000000 1.305562
487.000000 1.251042
488.000000 1.203391
489.000000 1.160324
490.000000 1.108173
491.000000 1.060325
492.000000 1.029134
493.000000 1.007153
494.000000 0.998148
495.000000 1.001161
496.000000 1.002913
497.000000 0.987679
498.000000 0.975973
499.000000 0.981377
500.000000 0.989940
501.000000 1.001852
502.000000 1.015170
503.000000 1.028041
504.000000 1.020384
505.000000 1.015423
506.000000 1.028907
507.000000 1.040993
508.000000 1.051775
509.000000 1.061330
510.000000 1.068756
511.000000 1.063116
512.000000 1.046647
513.000000 1.034208
514.000000 1.032431
515.000000 1.030227
516.000000 1.018768
517.000000 1.006017
518.000000 1.001062
519.000000 1.001715
520.000000 1.006893
521.000000 1.020271
522.000000 1.034960
523.000000 1.045248
524.000000 1.048683
525.000000 1.044043
526.000000 1.037670
527.000000 1.030882
528.000000 1.022242
529.000000 1.013852
530.000000 1.026594
531.000000 1.045129
532.000000 1.047879
533.000000 1.047560
534.000000 1.039909
535.000000 1.024221
536.000000 1.010786
537.000000 1.004586
538.000000 1.002525
539.000000 1.009282
540.000000 1.022263
541.000000 1.028702
542.000000 1.010014
543.000000 0.990821
544.000000 0.996913
545.000000 1.002069
546.000000 0.997519
547.000000 0.991162
548.000000 0.982245
549.000000 0.967256
550.000000 0.955008
551.000000 0.959933
552.000000 0.965381
553.000000 0.958691
554.000000 0.951119
555.000000 0.945162
556.000000 0.940121
557.000000 0.935558
558.000000 0.931219
559.000000 0.927257
560.000000 0.928674
561.000000 0.930671
562.000000 0.929783
563.000000 0.927951
564.000000 0.926229
565.000000 0.927307
566.000000 0.929063
567.000000 0.922931
568.000000 0.916532
569.000000 0.924912
570.000000 0.933842
571.000000 0.930624
572.000000 0.923094
573.000000 0.920434
574.000000 0.927957
575.000000 0.935971
576.000000 0.928871
577.000000 0.922205
578.000000 0.935227
579.000000 0.947719
580.000000 0.948229
581.000000 0.949091
582.000000 0.949915
583.000000 0.951084
584.000000 0.952325
585.000000 0.955719
586.000000 0.959539
587.000000 0.948735
588.000000 0.936072
589.000000 0.949181
590.000000 0.962954
591.000000 0.952746
592.000000 0.944263
593.000000 0.944642
594.000000 0.945231
595.000000 0.946327
596.000000 0.946892
597.000000 0.948580
598.000000 0.951320
599.000000 0.954957
600.000000 0.945169
601.000000 0.936871
602.000000 0.942755
603.000000 0.950792
604.000000 0.954802
605.000000 0.954531
606.000000 0.936134
607.000000 0.904447
608.000000 0.883331
609.000000 0.894002
610.000000 0.900294
611.000000 0.881290
612.000000 0.862904
613.000000 0.844193
614.000000 0.832100
615.000000 0.828696
616.000000 0.827193
617.000000 0.826442
618.000000 0.825033
619.000000 0.803295
620.000000 0.774707
621.000000 0.757258
622.000000 0.742653
623.000000 0.732405
624.000000 0.724446
625.000000 0.715510
626.000000 0.701005
627.000000 0.687762
628.000000 0.681077
629.000000 0.674734
630.000000 0.657321
631.000000 0.638957
632.000000 0.632497
633.000000 0.626911
634.000000 0.604865
635.000000 0.583751
636.000000 0.581869
637.000000 0.577789
638.000000 0.564715
639.000000 0.554106
640.000000 0.546087
641.000000 0.539715
642.000000 0.527064
643.000000 0.514133
644.000000 0.506791
645.000000 0.507849
646.000000 0.521637
647.000000 0.538725
648.000000 0.555187
649.000000 0.574241
650.000000 0.602281
651.000000 0.648848
652.000000 0.713602
653.000000 0.794107
654.000000 0.890119
655.000000 0.999745
656.000000 1.123443
657.000000 1.267853
658.000000 1.441767
659.000000 1.647857
660.000000 1.861964
661.000000 2.066318
662.000000 2.252546
663.000000 2.424940
664.000000 2.597832
665.000000 2.738587
666.000000 2.821633
667.000000 2.752615
668.000000 2.417030
669.000000 2.054189
670.000000 1.783144
671.000000 1.565338
672.000000 1.403536
673.000000 1.271579
674.000000 1.163558
675.000000 1.074885
676.000000 0.961717
677.000000 0.860043
678.000000 0.812276
679.000000 0.773377
680.000000 0.730410
681.000000 0.691090
682.000000 0.680660
683.000000 0.674887
684.000000 0.536108
685.000000 0.513594
686.000000 0.496919
687.000000 0.432086
688.000000 0.387788
689.000000 0.414290
690.000000 0.455864
691.000000 0.458172
692.000000 0.447602
693.000000 0.420161
694.000000 0.394828
695.000000 0.392013
696.000000 0.392348
697.000000 0.365430
698.000000 0.342563
699.000000 0.392023
700.000000 0.392511
701.000000 0.391232
702.000000 0.388551
703.000000 0.386382
704.000000 0.401203
705.000000 0.416637
706.000000 0.362558
707.000000 0.307094
708.000000 0.285731
709.000000 0.280573
710.000000 0.321576
711.000000 0.332509
712.000000 0.325797
713.000000 0.301372
714.000000 0.273201
715.000000 0.237659
716.000000 0.209755
717.000000 0.209710
718.000000 0.232087
719.000000 0.289644
720.000000 0.309629
721.000000 0.293961
722.000000 0.258428
723.000000 0.227755
724.000000 0.210078
725.000000 0.202985
726.000000 0.277497
727.000000 0.248641
728.000000 0.224898
729.000000 0.233337
730.000000 0.236995
731.000000 0.227356
732.000000 0.215032
733.000000 0.200757
734.000000 0.191601
735.000000 0.184698
736.000000 0.180529
737.000000 0.176908
738.000000 0.170122
739.000000 0.163419
740.000000 0.182707
741.000000 0.168565
742.000000 0.155118
743.000000 0.141581
744.000000 0.130695
745.000000 0.146882
746.000000 0.146711
747.000000 0.146791
748.000000 0.147900
749.000000 0.149613
750.000000 0.150670
751.000000 0.182563
752.000000 0.244505
753.000000 0.250019
754.000000 0.214867
755.000000 0.161443
756.000000 0.155813
757.000000 0.152585
758.000000 0.134669
759.000000 0.113292
760.000000 0.080375
761.000000 0.102645
762.000000 0.153891
763.000000 0.138515
764.000000 0.121331
765.000000 0.104807
766.000000 0.140787
767.000000 0.234110
768.000000 0.108728
769.000000 0.124890
770.000000 0.147941
771.000000 0.122107
772.000000 0.107124
773.000000 0.179667
774.000000 0.159729
775.000000 0.140703
776.000000 0.215338
777.000000 0.131835
778.000000 0.090187
779.000000 0.080155
