# Spectre Corrigé
# Date : 2026-01-13 11:07:07
# Plage : 380.0 - 779.0 nm
# 
# Format : Wavelength(nm)  Irradiance(W/m²/nm)
380.000000 1.748580e-02
381.000000 1.519198e-02
382.000000 1.336524e-02
383.000000 1.180861e-02
384.000000 1.045802e-02
385.000000 9.269714e-03
386.000000 8.222462e-03
387.000000 7.323473e-03
388.000000 6.519762e-03
389.000000 5.834199e-03
390.000000 5.281305e-03
391.000000 4.862391e-03
392.000000 4.568535e-03
393.000000 4.377907e-03
394.000000 4.289261e-03
395.000000 4.304457e-03
396.000000 4.434177e-03
397.000000 4.726152e-03
398.000000 5.163985e-03
399.000000 5.767170e-03
400.000000 6.553270e-03
401.000000 7.548672e-03
402.000000 8.840575e-03
403.000000 1.041616e-02
404.000000 1.227316e-02
405.000000 1.442539e-02
406.000000 1.689250e-02
407.000000 1.975045e-02
408.000000 2.300740e-02
409.000000 2.656074e-02
410.000000 3.029967e-02
411.000000 3.410783e-02
412.000000 3.781493e-02
413.000000 4.087331e-02
414.000000 4.311074e-02
415.000000 4.427986e-02
416.000000 4.424870e-02
417.000000 4.301743e-02
418.000000 4.072487e-02
419.000000 3.773071e-02
420.000000 3.455387e-02
421.000000 3.159103e-02
422.000000 2.902141e-02
423.000000 2.695300e-02
424.000000 2.561503e-02
425.000000 2.488811e-02
426.000000 2.465916e-02
427.000000 2.483692e-02
428.000000 2.535647e-02
429.000000 2.620088e-02
430.000000 2.739321e-02
431.000000 2.892019e-02
432.000000 3.080438e-02
433.000000 3.304032e-02
434.000000 3.562219e-02
435.000000 3.861347e-02
436.000000 4.194582e-02
437.000000 4.549445e-02
438.000000 4.928723e-02
439.000000 5.316702e-02
440.000000 5.689277e-02
441.000000 6.033343e-02
442.000000 6.315530e-02
443.000000 6.531685e-02
444.000000 6.656305e-02
445.000000 6.678107e-02
446.000000 6.594801e-02
447.000000 6.407737e-02
448.000000 6.110801e-02
449.000000 5.750658e-02
450.000000 5.346533e-02
451.000000 4.933965e-02
452.000000 4.532208e-02
453.000000 4.158866e-02
454.000000 3.849809e-02
455.000000 3.601588e-02
456.000000 3.403610e-02
457.000000 3.259421e-02
458.000000 3.163243e-02
459.000000 3.103688e-02
460.000000 3.083933e-02
461.000000 3.101239e-02
462.000000 3.153831e-02
463.000000 3.235554e-02
464.000000 3.344929e-02
465.000000 3.485035e-02
466.000000 3.661274e-02
467.000000 3.870620e-02
468.000000 4.111992e-02
469.000000 4.368060e-02
470.000000 4.634509e-02
471.000000 4.908687e-02
472.000000 5.179678e-02
473.000000 5.436691e-02
474.000000 5.659793e-02
475.000000 5.844456e-02
476.000000 5.987042e-02
477.000000 6.081552e-02
478.000000 6.124304e-02
479.000000 6.114768e-02
480.000000 6.044823e-02
481.000000 5.919331e-02
482.000000 5.769459e-02
483.000000 5.590145e-02
484.000000 5.386777e-02
485.000000 5.171326e-02
486.000000 4.954400e-02
487.000000 4.748339e-02
488.000000 4.562802e-02
489.000000 4.410045e-02
490.000000 4.280348e-02
491.000000 4.178524e-02
492.000000 4.106850e-02
493.000000 4.060559e-02
494.000000 4.038353e-02
495.000000 4.044837e-02
496.000000 4.065272e-02
497.000000 4.096846e-02
498.000000 4.138518e-02
499.000000 4.186444e-02
500.000000 4.237956e-02
501.000000 4.296832e-02
502.000000 4.347588e-02
503.000000 4.397852e-02
504.000000 4.445257e-02
505.000000 4.487443e-02
506.000000 4.521456e-02
507.000000 4.546056e-02
508.000000 4.563054e-02
509.000000 4.571919e-02
510.000000 4.572513e-02
511.000000 4.565913e-02
512.000000 4.557519e-02
513.000000 4.544182e-02
514.000000 4.523509e-02
515.000000 4.501660e-02
516.000000 4.487463e-02
517.000000 4.465415e-02
518.000000 4.441157e-02
519.000000 4.421430e-02
520.000000 4.398430e-02
521.000000 4.380897e-02
522.000000 4.365425e-02
523.000000 4.346381e-02
524.000000 4.326734e-02
525.000000 4.307904e-02
526.000000 4.290640e-02
527.000000 4.273758e-02
528.000000 4.255329e-02
529.000000 4.235175e-02
530.000000 4.214640e-02
531.000000 4.195675e-02
532.000000 4.178757e-02
533.000000 4.166981e-02
534.000000 4.148952e-02
535.000000 4.130160e-02
536.000000 4.117992e-02
537.000000 4.103876e-02
538.000000 4.090951e-02
539.000000 4.080848e-02
540.000000 4.070721e-02
541.000000 4.059559e-02
542.000000 4.053319e-02
543.000000 4.047746e-02
544.000000 4.044203e-02
545.000000 4.041105e-02
546.000000 4.040271e-02
547.000000 4.040769e-02
548.000000 4.039141e-02
549.000000 4.036932e-02
550.000000 4.039885e-02
551.000000 4.043747e-02
552.000000 4.050472e-02
553.000000 4.056578e-02
554.000000 4.061143e-02
555.000000 4.068059e-02
556.000000 4.074078e-02
557.000000 4.081936e-02
558.000000 4.092640e-02
559.000000 4.103858e-02
560.000000 4.114842e-02
561.000000 4.120583e-02
562.000000 4.130057e-02
563.000000 4.138037e-02
564.000000 4.144131e-02
565.000000 4.152114e-02
566.000000 4.161240e-02
567.000000 4.169299e-02
568.000000 4.177164e-02
569.000000 4.182938e-02
570.000000 4.183844e-02
571.000000 4.188134e-02
572.000000 4.190987e-02
573.000000 4.195824e-02
574.000000 4.195093e-02
575.000000 4.192946e-02
576.000000 4.189713e-02
577.000000 4.182410e-02
578.000000 4.173425e-02
579.000000 4.164039e-02
580.000000 4.155443e-02
581.000000 4.147491e-02
582.000000 4.132865e-02
583.000000 4.118399e-02
584.000000 4.102845e-02
585.000000 4.082096e-02
586.000000 4.059503e-02
587.000000 4.036463e-02
588.000000 4.010248e-02
589.000000 3.982970e-02
590.000000 3.956404e-02
591.000000 3.930560e-02
592.000000 3.903377e-02
593.000000 3.871459e-02
594.000000 3.838962e-02
595.000000 3.805881e-02
596.000000 3.768660e-02
597.000000 3.735198e-02
598.000000 3.699537e-02
599.000000 3.666052e-02
600.000000 3.624203e-02
601.000000 3.586658e-02
602.000000 3.547000e-02
603.000000 3.508525e-02
604.000000 3.471594e-02
605.000000 3.431950e-02
606.000000 3.392157e-02
607.000000 3.354469e-02
608.000000 3.314905e-02
609.000000 3.275427e-02
610.000000 3.234140e-02
611.000000 3.194739e-02
612.000000 3.156890e-02
613.000000 3.117829e-02
614.000000 3.082964e-02
615.000000 3.046062e-02
616.000000 3.010363e-02
617.000000 2.976292e-02
618.000000 2.943205e-02
619.000000 2.913165e-02
620.000000 2.885524e-02
621.000000 2.858833e-02
622.000000 2.835587e-02
623.000000 2.815354e-02
624.000000 2.797265e-02
625.000000 2.783432e-02
626.000000 2.770013e-02
627.000000 2.764807e-02
628.000000 2.759089e-02
629.000000 2.758651e-02
630.000000 2.766561e-02
631.000000 2.779054e-02
632.000000 2.795516e-02
633.000000 2.820693e-02
634.000000 2.852208e-02
635.000000 2.890450e-02
636.000000 2.941668e-02
637.000000 3.000291e-02
638.000000 3.067051e-02
639.000000 3.142419e-02
640.000000 3.223786e-02
641.000000 3.312968e-02
642.000000 3.406972e-02
643.000000 3.511006e-02
644.000000 3.623869e-02
645.000000 3.745058e-02
646.000000 3.885416e-02
647.000000 4.040444e-02
648.000000 4.216104e-02
649.000000 4.413492e-02
650.000000 4.630577e-02
651.000000 4.872597e-02
652.000000 5.128519e-02
653.000000 5.403259e-02
654.000000 5.689195e-02
655.000000 5.981037e-02
656.000000 6.274503e-02
657.000000 6.577609e-02
658.000000 6.880432e-02
659.000000 7.181007e-02
660.000000 7.452798e-02
661.000000 7.660217e-02
662.000000 7.776480e-02
663.000000 7.753087e-02
664.000000 7.539629e-02
665.000000 7.125506e-02
666.000000 6.542627e-02
667.000000 5.852591e-02
668.000000 5.122385e-02
669.000000 4.413727e-02
670.000000 3.775966e-02
671.000000 3.227388e-02
672.000000 2.771171e-02
673.000000 2.398501e-02
674.000000 2.095363e-02
675.000000 1.847657e-02
676.000000 1.643820e-02
677.000000 1.471649e-02
678.000000 1.329566e-02
679.000000 1.208138e-02
680.000000 1.105789e-02
681.000000 1.015355e-02
682.000000 9.390525e-03
683.000000 8.722128e-03
684.000000 8.145132e-03
685.000000 7.631318e-03
686.000000 7.180501e-03
687.000000 6.782243e-03
688.000000 6.432081e-03
689.000000 6.121754e-03
690.000000 5.839746e-03
691.000000 5.581598e-03
692.000000 5.341204e-03
693.000000 5.135438e-03
694.000000 4.920378e-03
695.000000 4.739667e-03
696.000000 4.563201e-03
697.000000 4.393481e-03
698.000000 4.226447e-03
699.000000 4.090826e-03
700.000000 3.946707e-03
701.000000 3.813024e-03
702.000000 3.690718e-03
703.000000 3.574262e-03
704.000000 3.455950e-03
705.000000 3.349190e-03
706.000000 3.243684e-03
707.000000 3.143777e-03
708.000000 3.051132e-03
709.000000 2.947496e-03
710.000000 2.864131e-03
711.000000 2.776889e-03
712.000000 2.699709e-03
713.000000 2.617334e-03
714.000000 2.535579e-03
715.000000 2.460871e-03
716.000000 2.378741e-03
717.000000 2.303689e-03
718.000000 2.237658e-03
719.000000 2.171723e-03
720.000000 2.117427e-03
721.000000 2.055978e-03
722.000000 1.999439e-03
723.000000 1.940652e-03
724.000000 1.883224e-03
725.000000 1.830247e-03
726.000000 1.780369e-03
727.000000 1.728195e-03
728.000000 1.681297e-03
729.000000 1.635302e-03
730.000000 1.589899e-03
731.000000 1.551106e-03
732.000000 1.509887e-03
733.000000 1.468493e-03
734.000000 1.429692e-03
735.000000 1.388770e-03
736.000000 1.352855e-03
737.000000 1.317708e-03
738.000000 1.281216e-03
739.000000 1.245972e-03
740.000000 1.211973e-03
741.000000 1.180778e-03
742.000000 1.151815e-03
743.000000 1.117731e-03
744.000000 1.089201e-03
745.000000 1.057636e-03
746.000000 1.031706e-03
747.000000 1.005615e-03
748.000000 9.773480e-04
749.000000 9.523749e-04
750.000000 9.267697e-04
751.000000 9.039373e-04
752.000000 8.780377e-04
753.000000 8.536652e-04
754.000000 8.301073e-04
755.000000 8.103864e-04
756.000000 7.867022e-04
757.000000 7.616974e-04
758.000000 7.354748e-04
759.000000 7.027227e-04
760.000000 6.696315e-04
761.000000 6.443090e-04
762.000000 6.288607e-04
763.000000 6.153892e-04
764.000000 6.018017e-04
765.000000 5.967193e-04
766.000000 5.902381e-04
767.000000 5.767873e-04
768.000000 5.690689e-04
769.000000 5.573931e-04
770.000000 5.420713e-04
771.000000 5.302243e-04
772.000000 5.171050e-04
773.000000 5.032591e-04
774.000000 4.898705e-04
775.000000 4.786367e-04
776.000000 4.669349e-04
777.000000 4.570065e-04
778.000000 4.430941e-04
779.000000 4.301711e-04
